// Pressure    Depth  Temperature   Density   Basalt       Vs         Vp        Entropy
// (GPa)       (km)     (K)       (g/cm^3)  Fraction    (km/s)     (km/s)     (J/(g.K))
  0.00       0.00    1300.00     3.16974   0.180     4.23588     7.42628     2.23853
  0.10       5.74    1300.00     3.17458   0.180     4.24244     7.44083     2.23729
  0.20       9.64    1300.00     3.17969   0.180     4.24954     7.45572     2.23605
  0.30      13.55    1300.00     3.18515   0.180     4.25732     7.47107     2.23479
  0.40      17.22    1300.00     3.19103   0.180     4.26596     7.48701     2.23352
  0.50      20.74    1300.00     3.19769   0.180     4.27603     7.50339     2.23221
  0.60      24.26    1300.00     3.20532   0.180     4.28797     7.52083     2.23086
  0.70      27.30    1300.00     3.21435   0.180     4.30263     7.53989     2.22943
  0.80      30.33    1300.00     3.22551   0.180     4.32147     7.56152     2.22788
  0.90      33.35    1300.00     3.27262   0.180     4.40926     7.64401     2.22153
  1.00      36.37    1300.00     3.27596   0.180     4.41279     7.65698     2.22031
  1.10      39.40    1300.00     3.27929   0.180     4.41630     7.66986     2.21911
  1.20      42.39    1300.00     3.28260   0.180     4.41978     7.68263     2.21793
  1.30      45.37    1300.00     3.28589   0.180     4.42323     7.69530     2.21675
  1.40      48.36    1300.00     3.28916   0.180     4.42665     7.70788     2.21559
  1.50      51.34    1300.00     3.31836   0.180     4.47226     7.83918     2.21397
  1.60      54.33    1300.00     3.32431   0.180     4.48006     7.86435     2.21259
  1.70      57.31    1300.00     3.32970   0.180     4.48702     7.88675     2.21129
  1.80      60.30    1300.00     3.33465   0.180     4.49334     7.90702     2.21005
  1.90      63.33    1300.00     3.33928   0.180     4.49916     7.92562     2.20886
  2.00      66.36    1300.00     3.34363   0.180     4.50456     7.94287     2.20770
  2.10      69.39    1300.00     3.34728   0.180     4.50875     7.95668     2.20661
  2.20      72.42    1300.00     3.35083   0.180     4.51279     7.96993     2.20553
  2.30      75.45    1300.00     3.35428   0.180     4.51670     7.98271     2.20448
  2.40      78.48    1300.00     3.35764   0.180     4.52050     7.99508     2.20344
  2.50      81.50    1300.00     3.36094   0.180     4.52420     8.00710     2.20241
  2.60      84.49    1300.00     3.36417   0.180     4.52782     8.01881     2.20140
  2.70      87.48    1300.00     3.36736   0.180     4.53137     8.03026     2.20040
  2.80      90.47    1300.00     3.37049   0.180     4.53485     8.04148     2.19941
  2.90      93.46    1300.00     3.37358   0.180     4.53828     8.05249     2.19843
  3.00      96.45    1300.00     3.37664   0.180     4.54165     8.06331     2.19746
  3.10      99.44    1300.00     3.37966   0.180     4.54498     8.07397     2.19650
  3.20     102.44    1300.00     3.38265   0.180     4.54827     8.08447     2.19555
  3.30     105.43    1300.00     3.38561   0.180     4.55152     8.09484     2.19460
  3.40     108.42    1300.00     3.38854   0.180     4.55473     8.10509     2.19366
  3.50     111.41    1300.00     3.39146   0.180     4.55792     8.11523     2.19273
  3.60     114.40    1300.00     3.39435   0.180     4.56107     8.12526     2.19181
  3.70     117.41    1300.00     3.39722   0.180     4.56419     8.13520     2.19089
  3.80     120.43    1300.00     3.40007   0.180     4.56729     8.14504     2.18998
  3.90     123.45    1300.00     3.40291   0.180     4.57037     8.15481     2.18908
  4.00     126.47    1300.00     3.40573   0.180     4.57342     8.16449     2.18818
  4.10     129.48    1300.00     3.40853   0.180     4.57646     8.17411     2.18729
  4.20     132.50    1300.00     3.41132   0.180     4.57947     8.18366     2.18640
  4.30     135.52    1300.00     3.41409   0.180     4.58246     8.19314     2.18552
  4.40     138.53    1300.00     3.41685   0.180     4.58544     8.20256     2.18464
  4.50     141.55    1300.00     3.41960   0.180     4.58840     8.21193     2.18377
  4.60     144.57    1300.00     3.42234   0.180     4.59134     8.22124     2.18291
  4.70     147.59    1300.00     3.42507   0.180     4.59427     8.23050     2.18205
  4.80     150.60    1300.00     3.42779   0.180     4.59718     8.23971     2.18119
  4.90     153.62    1300.00     3.43049   0.180     4.60008     8.24888     2.18034
  5.00     156.64    1300.00     3.43319   0.180     4.60296     8.25800     2.17950
  5.10     159.66    1300.00     3.43588   0.180     4.60583     8.26707     2.17865
  5.20     162.67    1300.00     3.43855   0.180     4.60869     8.27611     2.17782
  5.30     165.69    1300.00     3.44122   0.180     4.61153     8.28510     2.17699
  5.40     168.71    1300.00     3.44388   0.180     4.61437     8.29406     2.17616
  5.50     171.72    1300.00     3.44654   0.180     4.61719     8.30298     2.17533
  5.60     174.74    1300.00     3.44918   0.180     4.62000     8.31186     2.17451
  5.70     177.76    1300.00     3.45182   0.180     4.62280     8.32071     2.17370
  5.80     180.78    1300.00     3.45445   0.180     4.62559     8.32953     2.17289
  5.90     183.79    1300.00     3.45708   0.180     4.62837     8.33831     2.17208
  6.00     186.79    1300.00     3.45969   0.180     4.63114     8.34706     2.17128
  6.10     189.79    1300.00     3.46231   0.180     4.63390     8.35579     2.17048
  6.20     192.78    1300.00     3.46491   0.180     4.63666     8.36448     2.16968
  6.30     195.77    1300.00     3.46751   0.180     4.63940     8.37314     2.16889
  6.40     198.76    1300.00     3.47010   0.180     4.64214     8.38178     2.16810
  6.50     201.75    1300.00     3.47269   0.180     4.64487     8.39039     2.16732
  6.60     204.74    1300.00     3.47528   0.180     4.64759     8.39897     2.16654
  6.70     207.74    1300.00     3.47785   0.180     4.65030     8.40753     2.16576
  6.80     210.73    1300.00     3.48043   0.180     4.65301     8.41607     2.16499
  6.90     213.72    1300.00     3.48300   0.180     4.65571     8.42458     2.16422
  7.00     216.71    1300.00     3.48556   0.180     4.65840     8.43306     2.16345
  7.10     219.70    1300.00     3.48812   0.180     4.66109     8.44153     2.16268
  7.20     222.63    1300.00     3.49068   0.180     4.66377     8.44997     2.16192
  7.30     225.55    1300.00     3.49323   0.180     4.66645     8.45840     2.16117
  7.40     228.47    1300.00     3.49578   0.180     4.66912     8.46680     2.16041
  7.50     231.40    1300.00     3.49833   0.180     4.67179     8.47519     2.15966
  7.60     234.32    1300.00     3.50087   0.180     4.67445     8.48355     2.15891
  7.70     237.24    1300.00     3.50341   0.180     4.67710     8.49190     2.15817
  7.80     240.16    1300.00     3.50595   0.180     4.67976     8.50023     2.15742
  7.90     243.08    1300.00     3.50849   0.180     4.68241     8.50855     2.15668
  8.00     246.01    1300.00     3.51103   0.180     4.68506     8.51685     2.15594
  8.10     248.93    1300.00     3.51356   0.180     4.68770     8.52513     2.15521
  8.20     251.85    1300.00     3.51609   0.180     4.69034     8.53340     2.15448
  8.30     254.77    1300.00     3.52487   0.180     4.73032     8.58219     2.15169
  8.40     257.69    1300.00     3.52736   0.180     4.73304     8.59020     2.15093
  8.50     260.62    1300.00     3.52985   0.180     4.73575     8.59819     2.15016
  8.60     263.54    1300.00     3.53233   0.180     4.73845     8.60616     2.14940
  8.70     266.45    1300.00     3.53482   0.180     4.74115     8.61411     2.14864
  8.80     269.36    1300.00     3.53729   0.180     4.74383     8.62204     2.14789
  8.90     272.26    1300.00     3.53977   0.180     4.74651     8.62996     2.14713
  9.00     275.16    1300.00     3.54224   0.180     4.74918     8.63786     2.14638
  9.10     278.06    1300.00     3.54471   0.180     4.75183     8.64574     2.14563
  9.20     280.97    1300.00     3.54718   0.180     4.75449     8.65361     2.14489
  9.30     283.87    1300.00     3.54965   0.180     4.75713     8.66146     2.14415
  9.40     286.77    1300.00     3.55211   0.180     4.75976     8.66929     2.14341
  9.50     289.68    1300.00     3.55457   0.180     4.76239     8.67711     2.14267
  9.60     292.58    1300.00     3.55704   0.180     4.76500     8.68492     2.14194
  9.70     295.48    1300.00     3.55950   0.180     4.76761     8.69271     2.14121
  9.80     298.39    1300.00     3.56195   0.180     4.77022     8.70048     2.14048
  9.90     301.29    1300.00     3.56441   0.180     4.77281     8.70825     2.13976
 10.00     304.19    1300.00     3.56687   0.180     4.77540     8.71600     2.13903
 10.10     307.10    1300.00     3.56933   0.180     4.77798     8.72373     2.13831
 10.20     310.00    1300.00     3.57179   0.180     4.78055     8.73146     2.13760
 10.30     312.81    1300.00     3.57424   0.180     4.78311     8.73917     2.13688
 10.40     315.62    1300.00     3.57670   0.180     4.78567     8.74687     2.13617
 10.50     318.44    1300.00     3.57916   0.180     4.78822     8.75456     2.13546
 10.60     321.25    1300.00     3.58162   0.180     4.79076     8.76224     2.13475
 10.70     324.06    1300.00     3.58409   0.180     4.79330     8.76990     2.13405
 10.80     326.88    1300.00     3.58655   0.180     4.79583     8.77756     2.13334
 10.90     329.69    1300.00     3.58902   0.180     4.79835     8.78521     2.13264
 11.00     332.50    1300.00     3.59149   0.180     4.80087     8.79286     2.13194
 11.10     335.31    1300.00     3.59396   0.180     4.80338     8.80049     2.13125
 11.20     338.13    1300.00     3.59644   0.180     4.80588     8.80812     2.13055
 11.30     340.94    1300.00     3.59892   0.180     4.80838     8.81574     2.12986
 11.40     343.75    1300.00     3.60642   0.180     4.82350     8.84248     2.12730
 11.50     346.56    1300.00     3.61762   0.180     4.84809     8.88360     2.12345
 11.60     349.38    1300.00     3.62928   0.180     4.87400     8.92677     2.11954
 11.70     352.19    1300.00     3.64153   0.180     4.90164     8.97260     2.11553
 11.80     355.00    1300.00     3.65454   0.180     4.93152     9.02186     2.11138
 11.90     357.81    1300.00     3.66854   0.180     4.96431     9.07555     2.10702
 12.00     360.62    1300.00     3.68383   0.180     5.00086     9.13497     2.10239
 12.10     363.44    1300.00     3.70077   0.180     5.04237     9.20191     2.09738
 12.20     366.25    1300.00     3.71991   0.180     5.09048     9.27887     2.09187
 12.30     369.06    1300.00     3.74195   0.180     5.14748     9.36927     2.08569
 12.40     371.88    1300.00     3.74426   0.180     5.14971     9.37644     2.08503
 12.50     374.69    1300.00     3.74658   0.180     5.15193     9.38360     2.08437
 12.60     377.50    1300.00     3.74892   0.180     5.15414     9.39076     2.08371
 12.70     380.31    1300.00     3.75126   0.180     5.15636     9.39793     2.08306
 12.80     383.12    1300.00     3.75361   0.180     5.15856     9.40510     2.08241
 12.90     385.94    1300.00     3.75598   0.180     5.16076     9.41227     2.08176
 13.00     388.75    1300.00     3.75835   0.180     5.16296     9.41945     2.08111
 13.10     391.56    1300.00     3.76074   0.180     5.16515     9.42664     2.08047
 13.20     394.38    1300.00     3.76315   0.180     5.16734     9.43383     2.07982
 13.30     397.19    1300.00     3.76557   0.180     5.16952     9.44103     2.07918
 13.40     400.00    1300.00     3.76801   0.180     5.17170     9.44824     2.07855
 13.50     402.78    1300.00     3.77046   0.180     5.17387     9.45547     2.07791
 13.60     405.56    1300.00     3.77294   0.180     5.17604     9.46271     2.07728
 13.70     408.33    1300.00     3.77543   0.180     5.17821     9.46996     2.07665
 13.80     411.11    1300.00     3.77795   0.180     5.18037     9.47723     2.07602
 13.90     413.89    1300.00     3.78049   0.180     5.18252     9.48452     2.07539
 14.00     416.67    1300.00     3.78306   0.180     5.18468     9.49184     2.07477
 14.10     419.44    1300.00     3.78566   0.180     5.18683     9.49917     2.07415
 14.20     422.22    1300.00     3.78829   0.180     5.18897     9.50654     2.07353
 14.30     425.00    1300.00     3.79095   0.180     5.19111     9.51394     2.07291
 14.40     427.78    1300.00     3.79365   0.180     5.19325     9.52137     2.07230
 14.50     430.56    1300.00     3.79638   0.180     5.19539     9.52884     2.07169
 14.60     433.33    1300.00     3.79916   0.180     5.19752     9.53635     2.07108
 14.70     436.11    1300.00     3.80199   0.180     5.19965     9.54390     2.07048
 14.80     438.89    1300.00     3.80487   0.180     5.20178     9.55151     2.06988
 14.90     441.67    1300.00     3.80780   0.180     5.20391     9.55918     2.06928
 15.00     444.44    1300.00     3.81901   0.180     5.22600     9.59542     2.06597
 15.10     447.22    1300.00     3.82196   0.180     5.23283     9.60696     2.06485
 15.20     450.00    1300.00     3.82492   0.180     5.23972     9.61858     2.06373
 15.30     452.63    1300.00     3.82790   0.180     5.24669     9.63027     2.06260
 15.40     455.26    1300.00     3.83089   0.180     5.25375     9.64205     2.06147
 15.50     457.89    1300.00     3.83391   0.180     5.26089     9.65393     2.06034
 15.60     460.53    1300.00     3.83695   0.180     5.26813     9.66590     2.05920
 15.70     463.16    1300.00     3.84001   0.180     5.27547     9.67798     2.05805
 15.80     465.79    1300.00     3.84309   0.180     5.28291     9.69016     2.05690
 15.90     468.42    1300.00     3.84619   0.180     5.29045     9.70244     2.05574
 16.00     471.05    1300.00     3.84932   0.180     5.29808     9.71481     2.05458
 16.10     473.68    1300.00     3.85246   0.180     5.30578     9.72725     2.05342
 16.20     476.32    1300.00     3.85562   0.180     5.31355     9.73974     2.05225
 16.30     478.95    1300.00     3.85879   0.180     5.32136     9.75225     2.05108
 16.40     481.58    1300.00     3.86195   0.180     5.32918     9.76475     2.04991
 16.50     484.21    1300.00     3.86512   0.180     5.33698     9.77719     2.04875
 16.60     486.84    1300.00     3.86827   0.180     5.34471     9.78954     2.04761
 16.70     489.47    1300.00     3.87140   0.180     5.35235     9.80173     2.04647
 16.80     492.11    1300.00     3.87450   0.180     5.35983     9.81372     2.04536
 16.90     494.74    1300.00     3.87756   0.180     5.36713     9.82546     2.04426
 17.00     497.37    1300.00     3.88057   0.180     5.37420     9.83689     2.04320
 17.10     500.00    1300.00     3.88352   0.180     5.38101     9.84798     2.04216
 17.20     502.50    1300.00     3.88641   0.180     5.38751     9.85869     2.04116
 17.30     505.00    1300.00     3.88923   0.180     5.39371     9.86901     2.04019
 17.40     507.50    1300.00     3.89197   0.180     5.39957     9.87890     2.03925
 17.50     510.00    1300.00     3.89465   0.180     5.40511     9.88839     2.03835
 17.60     512.50    1300.00     3.93767   0.180     5.51907    10.05485     2.02802
 17.70     515.00    1300.00     3.95465   0.180     5.56259    10.11853     2.02339
 17.80     517.50    1300.00     3.95709   0.180     5.56749    10.12721     2.02254
 17.90     520.00    1300.00     3.95927   0.180     5.57156    10.13497     2.02175
 18.00     522.50    1300.00     3.96144   0.180     5.57552    10.14260     2.02098
 18.10     525.00    1300.00     3.96362   0.180     5.57944    10.15019     2.02022
 18.20     527.50    1300.00     3.96710   0.180     5.58465    10.15961     2.01977
 18.30     530.00    1300.00     3.97045   0.180     5.58960    10.16871     2.01932
 18.40     532.50    1300.00     3.97368   0.180     5.59431    10.17751     2.01887
 18.50     535.00    1300.00     3.97681   0.180     5.59881    10.18603     2.01842
 18.60     537.50    1300.00     3.97984   0.180     5.60312    10.19431     2.01796
 18.70     540.00    1300.00     3.98278   0.180     5.60724    10.20236     2.01751
 18.80     542.50    1300.00     3.98564   0.180     5.61121    10.21020     2.01706
 18.90     545.00    1300.00     3.98842   0.180     5.61503    10.21785     2.01660
 19.00     547.50    1300.00     3.99114   0.180     5.61871    10.22532     2.01615
 19.10     550.00    1300.00     3.99379   0.180     5.62227    10.23263     2.01569
 19.20     552.63    1300.00     3.99638   0.180     5.62570    10.23980     2.01523
 19.30     555.26    1300.00     3.99892   0.180     5.62904    10.24682     2.01478
 19.40     557.90    1300.00     4.00141   0.180     5.63227    10.25371     2.01432
 19.50     560.53    1300.00     4.00385   0.180     5.63541    10.26049     2.01386
 19.60     563.16    1300.00     4.00624   0.180     5.63846    10.26715     2.01340
 19.70     565.79    1300.00     4.00860   0.180     5.64144    10.27370     2.01295
 19.80     568.42    1300.00     4.01091   0.180     5.64433    10.28016     2.01249
 19.90     571.05    1300.00     4.01319   0.180     5.64716    10.28652     2.01203
 20.00     573.68    1300.00     4.01544   0.180     5.64992    10.29280     2.01158
 20.10     576.32    1300.00     4.01765   0.180     5.65262    10.29900     2.01112
 20.20     578.95    1300.00     4.01984   0.180     5.65526    10.30512     2.01066
 20.30     581.58    1300.00     4.02200   0.180     5.65785    10.31116     2.01021
 20.40     584.21    1300.00     4.02413   0.180     5.66038    10.31714     2.00975
 20.50     586.84    1300.00     4.02623   0.180     5.66287    10.32305     2.00930
 20.60     589.47    1300.00     4.02831   0.180     5.66531    10.32890     2.00884
 20.70     592.11    1300.00     4.03037   0.180     5.66770    10.33469     2.00839
 20.80     594.74    1300.00     4.03241   0.180     5.67005    10.34043     2.00794
 20.90     597.37    1300.00     4.04107   0.180     5.66099    10.35369     2.00651
 21.00     600.00    1300.00     4.04867   0.180     5.65476    10.36662     2.00511
 21.10     602.50    1300.00     4.05086   0.180     5.65772    10.37344     2.00452
 21.20     605.00    1300.00     4.05303   0.180     5.66066    10.38024     2.00393
 21.30     607.50    1300.00     4.05519   0.180     5.66358    10.38701     2.00334
 21.40     610.00    1300.00     4.05735   0.180     5.66648    10.39377     2.00275
 21.50     612.50    1300.00     4.05949   0.180     5.66937    10.40051     2.00216
 21.60     615.00    1300.00     4.06162   0.180     5.67226    10.40724     2.00157
 21.70     617.50    1300.00     4.06374   0.180     5.67514    10.41397     2.00097
 21.80     620.00    1300.00     4.06586   0.180     5.67802    10.42070     2.00037
 21.90     622.50    1300.00     4.06798   0.180     5.68091    10.42744     1.99976
 22.00     625.00    1300.00     4.07009   0.180     5.68380    10.43419     1.99916
 22.10     627.50    1300.00     4.07220   0.180     5.68671    10.44095     1.99854
 22.20     630.00    1300.00     4.07432   0.180     5.68962    10.44775     1.99792
 22.30     632.50    1300.00     4.07643   0.180     5.69256    10.45457     1.99730
 22.40     635.00    1300.00     4.07855   0.180     5.69553    10.46143     1.99667
 22.50     637.50    1300.00     4.08067   0.180     5.69852    10.46833     1.99603
 22.60     640.00    1300.00     4.08279   0.180     5.70155    10.47529     1.99539
 22.70     642.50    1300.00     4.08493   0.180     5.70462    10.48231     1.99473
 22.80     645.00    1300.00     4.08707   0.180     5.70773    10.48940     1.99407
 22.90     647.50    1300.00     4.08923   0.180     5.71090    10.49657     1.99339
 23.00     650.00    1300.00     4.09140   0.180     5.71413    10.50382     1.99271
 23.10     652.50    1300.00     4.09360   0.180     5.71743    10.51119     1.99201
 23.20     655.00    1300.00     4.09581   0.180     5.72080    10.51867     1.99129
 23.30     657.50    1300.00     4.09804   0.180     5.72427    10.52628     1.99056
 23.40     660.00    1300.00     4.10030   0.180     5.72783    10.53404     1.98981
 23.50     662.50    1300.00     4.10259   0.180     5.73151    10.54196     1.98904
 23.60     665.00    1300.00     4.11471   0.180     5.74143    10.56437     1.98707
 23.70     667.50    1300.00     4.24662   0.180     5.83951    10.77394     1.97093
 23.80     670.00    1300.00     4.24810   0.180     5.84163    10.77955     1.97045
 23.90     672.22    1300.00     4.24958   0.180     5.84374    10.78515     1.96997
 24.00     674.43    1300.00     4.25106   0.180     5.84586    10.79074     1.96950
 24.10     676.65    1300.00     4.25254   0.180     5.84797    10.79632     1.96902
 24.20     678.87    1300.00     4.25402   0.180     5.85007    10.80189     1.96855
 24.30     681.09    1300.00     4.25549   0.180     5.85218    10.80746     1.96807
 24.40     683.30    1300.00     4.25697   0.180     5.85429    10.81302     1.96760
 24.50     685.52    1300.00     4.25844   0.180     5.85639    10.81857     1.96713
 24.60     687.74    1300.00     4.25991   0.180     5.85849    10.82412     1.96666
 24.70     689.96    1300.00     4.26137   0.180     5.86059    10.82966     1.96619
 24.80     692.17    1300.00     4.29024   0.180     5.91356    10.86527     1.96991
 24.90     694.39    1300.00     4.32140   0.180     5.97016    10.90303     1.97400
 25.00     696.61    1300.00     4.34633   0.180     6.01483    10.93358     1.97716
 25.10     698.83    1300.00     4.36656   0.180     6.05064    10.95869     1.97960
 25.20     701.04    1300.00     4.38320   0.180     6.07974    10.97963     1.98150
 25.30     703.26    1300.00     4.39706   0.180     6.10368    10.99734     1.98296
 25.40     705.48    1300.00     4.40874   0.180     6.12360    11.01252     1.98409
 25.50     707.70    1300.00     4.41869   0.180     6.14035    11.02568     1.98495
 25.60     709.91    1300.00     4.42725   0.180     6.15456    11.03723     1.98559
 25.70     712.13    1300.00     4.43468   0.180     6.16672    11.04748     1.98605
 25.80     714.35    1300.00     4.44119   0.180     6.17720    11.05666     1.98637
 25.90     716.57    1300.00     4.44694   0.180     6.18629    11.06497     1.98656
 26.00     718.78    1300.00     4.45204   0.180     6.19423    11.07254     1.98666
 26.10     721.00    1300.00     4.45661   0.180     6.20120    11.07951     1.98667
 26.20     723.27    1300.00     4.46072   0.180     6.20734    11.08597     1.98660
 26.30     725.54    1300.00     4.46444   0.180     6.21277    11.09199     1.98648
 26.40     727.82    1300.00     4.46783   0.180     6.21761    11.09766     1.98629
 26.50     730.09    1300.00     4.47093   0.180     6.22196    11.10304     1.98607
 26.60     732.36    1300.00     4.47383   0.180     6.22599    11.10825     1.98581
 26.70     734.64    1300.00     4.47724   0.180     6.23107    11.11415     1.98562
 26.80     736.91    1300.00     4.47904   0.180     6.23328    11.11845     1.98518
 26.90     739.18    1300.00     4.48069   0.180     6.23521    11.12259     1.98471
 27.00     741.46    1300.00     4.48229   0.180     6.23706    11.12669     1.98425
 27.10     743.73    1300.00     4.48387   0.180     6.23886    11.13075     1.98378
 27.20     746.00    1300.00     4.48543   0.180     6.24063    11.13480     1.98331
 27.30     748.27    1300.00     4.48699   0.180     6.24237    11.13883     1.98283
 27.40     750.55    1300.00     4.48853   0.180     6.24411    11.14284     1.98236
 27.50     752.82    1300.00     4.49008   0.180     6.24582    11.14684     1.98189
 27.60     755.09    1300.00     4.49161   0.180     6.24753    11.15083     1.98142
 27.70     757.36    1300.00     4.49314   0.180     6.24922    11.15480     1.98095
 27.80     759.64    1300.00     4.49467   0.180     6.25090    11.15876     1.98048
 27.90     761.91    1300.00     4.49620   0.180     6.25258    11.16272     1.98001
 28.00     764.18    1300.00     4.49772   0.180     6.25424    11.16666     1.97954
 28.10     766.46    1300.00     4.49922   0.180     6.25591    11.17065     1.97906
 28.20     768.73    1300.00     4.50066   0.180     6.25760    11.17474     1.97858
 28.30     771.00    1300.00     4.50210   0.180     6.25928    11.17883     1.97809
 28.40     773.22    1300.00     4.50354   0.180     6.26097    11.18291     1.97760
 28.50     775.44    1300.00     4.50498   0.180     6.26265    11.18699     1.97712
 28.60     777.67    1300.00     4.50642   0.180     6.26433    11.19106     1.97663
 28.70     779.89    1300.00     4.50785   0.180     6.26600    11.19513     1.97615
 28.80     782.11    1300.00     4.50929   0.180     6.26767    11.19919     1.97567
 28.90     784.33    1300.00     4.51072   0.180     6.26934    11.20325     1.97518
 29.00     786.56    1300.00     4.51215   0.180     6.27101    11.20730     1.97470
 29.10     788.78    1300.00     4.51358   0.180     6.27268    11.21135     1.97422
 29.20     791.00    1300.00     4.51501   0.180     6.27434    11.21539     1.97374
 29.30     793.22    1300.00     4.51644   0.180     6.27600    11.21943     1.97326
 29.40     795.44    1300.00     4.51786   0.180     6.27766    11.22347     1.97279
 29.50     797.67    1300.00     4.51929   0.180     6.27932    11.22750     1.97231
 29.60     799.89    1300.00     4.52071   0.180     6.28097    11.23152     1.97183
 29.70     802.11    1300.00     4.52213   0.180     6.28262    11.23554     1.97136
 29.80     804.33    1300.00     4.52355   0.180     6.28427    11.23956     1.97088
 29.90     806.56    1300.00     4.52497   0.180     6.28592    11.24357     1.97041
 30.00     808.78    1300.00     4.52639   0.180     6.28757    11.24757     1.96993
 30.10     811.00    1300.00     4.52781   0.180     6.28921    11.25157     1.96946
 30.20     813.22    1300.00     4.52922   0.180     6.29085    11.25557     1.96899
 30.30     815.44    1300.00     4.53064   0.180     6.29249    11.25956     1.96852
 30.40     817.67    1300.00     4.53205   0.180     6.29412    11.26354     1.96804
 30.50     819.89    1300.00     4.53346   0.180     6.29576    11.26753     1.96757
 30.60     822.11    1300.00     4.53487   0.180     6.29739    11.27150     1.96711
 30.70     824.33    1300.00     4.53628   0.180     6.29902    11.27548     1.96664
 30.80     826.56    1300.00     4.53769   0.180     6.30064    11.27944     1.96617
 30.90     828.78    1300.00     4.53910   0.180     6.30227    11.28341     1.96570
 31.00     831.00    1300.00     4.54050   0.180     6.30389    11.28737     1.96524
 31.10     833.22    1300.00     4.54190   0.180     6.30551    11.29132     1.96477
 31.20     835.44    1300.00     4.54331   0.180     6.30713    11.29527     1.96431
 31.30     837.67    1300.00     4.54471   0.180     6.30875    11.29921     1.96384
 31.40     839.89    1300.00     4.54611   0.180     6.31036    11.30315     1.96338
 31.50     842.11    1300.00     4.54751   0.180     6.31197    11.30709     1.96292
 31.60     844.33    1300.00     4.54891   0.180     6.31358    11.31102     1.96245
 31.70     846.56    1300.00     4.55030   0.180     6.31519    11.31495     1.96199
 31.80     848.78    1300.00     4.55170   0.180     6.31679    11.31887     1.96153
 31.90     851.00    1300.00     4.55309   0.180     6.31840    11.32279     1.96107
 32.00     853.22    1300.00     4.55448   0.180     6.32000    11.32670     1.96061
 32.10     855.44    1300.00     4.55588   0.180     6.32159    11.33061     1.96015
 32.20     857.67    1300.00     4.55727   0.180     6.32319    11.33452     1.95970
 32.30     859.89    1300.00     4.55866   0.180     6.32479    11.33842     1.95924
 32.40     862.11    1300.00     4.56004   0.180     6.32638    11.34231     1.95878
 32.50     864.33    1300.00     4.56143   0.180     6.32797    11.34620     1.95833
 32.60     866.56    1300.00     4.56281   0.180     6.32956    11.35009     1.95787
 32.70     868.78    1300.00     4.56420   0.180     6.33114    11.35397     1.95742
 32.80     871.00    1300.00     4.56558   0.180     6.33273    11.35785     1.95697
 32.90     873.22    1300.00     4.56696   0.180     6.33431    11.36173     1.95651
 33.00     875.44    1300.00     4.56834   0.180     6.33589    11.36560     1.95606
 33.10     877.67    1300.00     4.56972   0.180     6.33746    11.36946     1.95561
 33.20     879.89    1300.00     4.57110   0.180     6.33904    11.37332     1.95516
 33.30     882.11    1300.00     4.57248   0.180     6.34061    11.37718     1.95471
 33.40     884.33    1300.00     4.57385   0.180     6.34219    11.38103     1.95426
 33.50     886.56    1300.00     4.57523   0.180     6.34375    11.38488     1.95381
 33.60     888.78    1300.00     4.57660   0.180     6.34532    11.38872     1.95336
 33.70     891.00    1300.00     4.57797   0.180     6.34689    11.39256     1.95292
 33.80     893.22    1300.00     4.57935   0.180     6.34845    11.39640     1.95247
 33.90     895.45    1300.00     4.58071   0.180     6.35001    11.40023     1.95202
 34.00     897.67    1300.00     4.58208   0.180     6.35157    11.40406     1.95158
 34.10     899.89    1300.00     4.58345   0.180     6.35313    11.40788     1.95113
 34.20     902.11    1300.00     4.58482   0.180     6.35468    11.41170     1.95069
 34.30     904.33    1300.00     4.58618   0.180     6.35624    11.41551     1.95025
 34.40     906.56    1300.00     4.58755   0.180     6.35779    11.41932     1.94980
 34.50     908.78    1300.00     4.58891   0.180     6.35934    11.42313     1.94936
 34.60     911.00    1300.00     4.59027   0.180     6.36089    11.42693     1.94892
 34.70     913.22    1300.00     4.59163   0.180     6.36243    11.43073     1.94848
 34.80     915.44    1300.00     4.59299   0.180     6.36398    11.43452     1.94804
 34.90     917.67    1300.00     4.59435   0.180     6.36552    11.43831     1.94760
 35.00     919.89    1300.00     4.59570   0.180     6.36706    11.44210     1.94716
 35.10     922.11    1300.00     4.59706   0.180     6.36859    11.44588     1.94672
 35.20     924.33    1300.00     4.59842   0.180     6.37013    11.44966     1.94629
 35.30     926.56    1300.00     4.59977   0.180     6.37166    11.45343     1.94585
 35.40     928.78    1300.00     4.60112   0.180     6.37320    11.45720     1.94541
 35.50     931.00    1300.00     4.60247   0.180     6.37473    11.46096     1.94498
 35.60     933.22    1300.00     4.60382   0.180     6.37625    11.46472     1.94454
 35.70     935.44    1300.00     4.60517   0.180     6.37778    11.46848     1.94411
 35.80     937.67    1300.00     4.60652   0.180     6.37930    11.47223     1.94367
 35.90     939.89    1300.00     4.60787   0.180     6.38083    11.47598     1.94324
 36.00     942.11    1300.00     4.60921   0.180     6.38235    11.47973     1.94281
 36.10     944.33    1300.00     4.61056   0.180     6.38387    11.48347     1.94238
 36.20     946.56    1300.00     4.61190   0.180     6.38538    11.48721     1.94195
 36.30     948.78    1300.00     4.61324   0.180     6.38690    11.49094     1.94151
 36.40     951.00    1300.00     4.61458   0.180     6.38841    11.49467     1.94108
 36.50     953.22    1300.00     4.61592   0.180     6.38992    11.49840     1.94066
 36.60     955.44    1300.00     4.61726   0.180     6.39143    11.50212     1.94023
 36.70     957.67    1300.00     4.61860   0.180     6.39294    11.50584     1.93980
 36.80     959.89    1300.00     4.61994   0.180     6.39445    11.50955     1.93937
 36.90     962.11    1300.00     4.62127   0.180     6.39595    11.51326     1.93894
 37.00     964.33    1300.00     4.62261   0.180     6.39745    11.51696     1.93852
 37.10     966.56    1300.00     4.62394   0.180     6.39895    11.52067     1.93809
 37.20     968.78    1300.00     4.62527   0.180     6.40045    11.52437     1.93767
 37.30     971.00    1300.00     4.62660   0.180     6.40195    11.52806     1.93724
 37.40     973.17    1300.00     4.62793   0.180     6.40344    11.53175     1.93682
 37.50     975.35    1300.00     4.62926   0.180     6.40494    11.53544     1.93640
 37.60     977.52    1300.00     4.63059   0.180     6.40643    11.53912     1.93597
 37.70     979.70    1300.00     4.63192   0.180     6.40792    11.54280     1.93555
 37.80     981.87    1300.00     4.63324   0.180     6.40940    11.54647     1.93513
 37.90     984.04    1300.00     4.63457   0.180     6.41089    11.55015     1.93471
 38.00     986.22    1300.00     4.63589   0.180     6.41237    11.55381     1.93429
 38.10     988.39    1300.00     4.63721   0.180     6.41386    11.55748     1.93387
 38.20     990.57    1300.00     4.63853   0.180     6.41534    11.56114     1.93345
 38.30     992.74    1300.00     4.63985   0.180     6.41682    11.56480     1.93303
 38.40     994.91    1300.00     4.64117   0.180     6.41829    11.56845     1.93261
 38.50     997.09    1300.00     4.64249   0.180     6.41977    11.57210     1.93220
 38.60     999.26    1300.00     4.64381   0.180     6.42124    11.57574     1.93178
 38.70    1001.43    1300.00     4.64512   0.180     6.42271    11.57938     1.93136
 38.80    1003.61    1300.00     4.64644   0.180     6.42418    11.58302     1.93095
 38.90    1005.78    1300.00     4.64775   0.180     6.42565    11.58666     1.93053
 39.00    1007.96    1300.00     4.64907   0.180     6.42712    11.59029     1.93012
