// Pressure    Depth  Temperature   Density   Basalt       Vs         Vp        Entropy
// (GPa)       (km)     (K)       (g/cm^3)  Fraction    (km/s)     (km/s)     (J/(g.K))
  0.00       0.00    1100.00     3.18981   0.180     4.30869     7.55368     2.03630
  0.10       5.74    1100.00     3.19411   0.180     4.31422     7.56701     2.03516
  0.20       9.64    1100.00     3.19864   0.180     4.32018     7.58068     2.03401
  0.30      13.55    1100.00     3.20346   0.180     4.32671     7.59480     2.03284
  0.40      17.22    1100.00     3.20867   0.180     4.33398     7.60953     2.03164
  0.50      20.74    1100.00     3.21436   0.180     4.34216     7.62501     2.03042
  0.60      24.26    1100.00     3.22061   0.180     4.35143     7.64133     2.02917
  0.70      27.30    1100.00     3.22749   0.180     4.36191     7.65849     2.02789
  0.80      30.33    1100.00     3.29565   0.180     4.48606     7.78001     2.01857
  0.90      33.35    1100.00     3.29882   0.180     4.48932     7.79211     2.01747
  1.00      36.37    1100.00     3.30197   0.180     4.49255     7.80413     2.01638
  1.10      39.40    1100.00     3.30511   0.180     4.49577     7.81607     2.01530
  1.20      42.39    1100.00     3.30823   0.180     4.49896     7.82792     2.01423
  1.30      45.37    1100.00     3.34512   0.180     4.55630     7.98482     2.01331
  1.40      48.36    1100.00     3.34924   0.180     4.56115     8.00069     2.01219
  1.50      51.34    1100.00     3.35292   0.180     4.56525     8.01435     2.01112
  1.60      54.33    1100.00     3.35646   0.180     4.56919     8.02739     2.01007
  1.70      57.31    1100.00     3.35988   0.180     4.57299     8.03992     2.00905
  1.80      60.30    1100.00     3.36322   0.180     4.57667     8.05200     2.00803
  1.90      63.33    1100.00     3.36648   0.180     4.58026     8.06372     2.00704
  2.00      66.36    1100.00     3.36966   0.180     4.58376     8.07512     2.00605
  2.10      69.39    1100.00     3.37279   0.180     4.58719     8.08625     2.00508
  2.20      72.42    1100.00     3.37587   0.180     4.59056     8.09715     2.00412
  2.30      75.45    1100.00     3.37891   0.180     4.59387     8.10784     2.00317
  2.40      78.48    1100.00     3.38190   0.180     4.59713     8.11834     2.00223
  2.50      81.50    1100.00     3.38486   0.180     4.60035     8.12869     2.00129
  2.60      84.49    1100.00     3.38779   0.180     4.60353     8.13888     2.00037
  2.70      87.48    1100.00     3.39069   0.180     4.60667     8.14895     1.99945
  2.80      90.47    1100.00     3.39357   0.180     4.60978     8.15890     1.99854
  2.90      93.46    1100.00     3.39642   0.180     4.61286     8.16874     1.99764
  3.00      96.45    1100.00     3.39925   0.180     4.61591     8.17849     1.99674
  3.10      99.44    1100.00     3.40205   0.180     4.61894     8.18814     1.99585
  3.20     102.44    1100.00     3.40484   0.180     4.62195     8.19771     1.99497
  3.30     105.43    1100.00     3.40762   0.180     4.62493     8.20720     1.99409
  3.40     108.42    1100.00     3.41038   0.180     4.62789     8.21662     1.99322
  3.50     111.41    1100.00     3.41312   0.180     4.63083     8.22598     1.99235
  3.60     114.40    1100.00     3.41585   0.180     4.63375     8.23527     1.99149
  3.70     117.41    1100.00     3.41856   0.180     4.63666     8.24450     1.99063
  3.80     120.43    1100.00     3.42126   0.180     4.63954     8.25367     1.98978
  3.90     123.45    1100.00     3.42395   0.180     4.64242     8.26280     1.98894
  4.00     126.47    1100.00     3.42663   0.180     4.64527     8.27187     1.98810
  4.10     129.48    1100.00     3.42930   0.180     4.64811     8.28089     1.98726
  4.20     132.50    1100.00     3.43196   0.180     4.65094     8.28987     1.98643
  4.30     135.52    1100.00     3.43461   0.180     4.65376     8.29880     1.98560
  4.40     138.53    1100.00     3.43724   0.180     4.65656     8.30769     1.98478
  4.50     141.55    1100.00     3.43987   0.180     4.65935     8.31654     1.98396
  4.60     144.57    1100.00     3.44249   0.180     4.66212     8.32535     1.98315
  4.70     147.59    1100.00     3.44511   0.180     4.66489     8.33412     1.98234
  4.80     150.60    1100.00     3.44771   0.180     4.66764     8.34286     1.98153
  4.90     153.62    1100.00     3.45030   0.180     4.67038     8.35156     1.98073
  5.00     156.64    1100.00     3.45289   0.180     4.67312     8.36023     1.97993
  5.10     159.66    1100.00     3.45547   0.180     4.67584     8.36886     1.97914
  5.20     162.67    1100.00     3.45804   0.180     4.67855     8.37746     1.97835
  5.30     165.69    1100.00     3.46061   0.180     4.68125     8.38602     1.97757
  5.40     168.71    1100.00     3.46317   0.180     4.68394     8.39456     1.97679
  5.50     171.72    1100.00     3.46572   0.180     4.68662     8.40307     1.97601
  5.60     174.74    1100.00     3.46826   0.180     4.68929     8.41154     1.97524
  5.70     177.76    1100.00     3.47080   0.180     4.69195     8.41999     1.97447
  5.80     180.78    1100.00     3.47334   0.180     4.69461     8.42841     1.97370
  5.90     183.79    1100.00     3.47586   0.180     4.69725     8.43680     1.97294
  6.00     186.79    1100.00     3.47838   0.180     4.69989     8.44517     1.97218
  6.10     189.79    1100.00     3.48090   0.180     4.70252     8.45351     1.97142
  6.20     192.78    1100.00     3.48341   0.180     4.70514     8.46182     1.97067
  6.30     195.77    1100.00     3.48591   0.180     4.70775     8.47011     1.96992
  6.40     198.76    1100.00     3.48841   0.180     4.71036     8.47837     1.96917
  6.50     201.75    1100.00     3.49091   0.180     4.71295     8.48662     1.96843
  6.60     204.74    1100.00     3.49340   0.180     4.71554     8.49483     1.96769
  6.70     207.74    1100.00     3.49588   0.180     4.71813     8.50303     1.96696
  6.80     210.73    1100.00     3.49836   0.180     4.72071     8.51120     1.96622
  6.90     213.72    1100.00     3.50084   0.180     4.72328     8.51935     1.96549
  7.00     216.71    1100.00     3.50331   0.180     4.72584     8.52748     1.96477
  7.10     219.70    1100.00     3.50578   0.180     4.72840     8.53559     1.96404
  7.20     222.63    1100.00     3.50825   0.180     4.73095     8.54368     1.96332
  7.30     225.55    1100.00     3.51071   0.180     4.73350     8.55175     1.96260
  7.40     228.47    1100.00     3.51317   0.180     4.73604     8.55981     1.96189
  7.50     231.40    1100.00     3.52328   0.180     4.77737     8.60903     1.95880
  7.60     234.32    1100.00     3.52571   0.180     4.78008     8.61692     1.95804
  7.70     237.24    1100.00     3.52814   0.180     4.78278     8.62480     1.95728
  7.80     240.16    1100.00     3.53056   0.180     4.78547     8.63265     1.95653
  7.90     243.08    1100.00     3.53298   0.180     4.78815     8.64048     1.95578
  8.00     246.01    1100.00     3.53540   0.180     4.79082     8.64830     1.95504
  8.10     248.93    1100.00     3.53781   0.180     4.79349     8.65610     1.95429
  8.20     251.85    1100.00     3.54021   0.180     4.79615     8.66388     1.95355
  8.30     254.77    1100.00     3.54261   0.180     4.79880     8.67164     1.95282
  8.40     257.69    1100.00     3.54501   0.180     4.80144     8.67938     1.95208
  8.50     260.62    1100.00     3.54741   0.180     4.80407     8.68710     1.95135
  8.60     263.54    1100.00     3.54980   0.180     4.80670     8.69481     1.95062
  8.70     266.45    1100.00     3.55218   0.180     4.80932     8.70250     1.94989
  8.80     269.36    1100.00     3.55457   0.180     4.81193     8.71018     1.94917
  8.90     272.26    1100.00     3.55695   0.180     4.81454     8.71783     1.94845
  9.00     275.16    1100.00     3.55932   0.180     4.81713     8.72547     1.94773
  9.10     278.06    1100.00     3.56170   0.180     4.81972     8.73310     1.94701
  9.20     280.97    1100.00     3.56407   0.180     4.82230     8.74071     1.94630
  9.30     283.87    1100.00     3.56644   0.180     4.82488     8.74830     1.94559
  9.40     286.77    1100.00     3.56880   0.180     4.82745     8.75588     1.94488
  9.50     289.68    1100.00     3.57117   0.180     4.83001     8.76345     1.94418
  9.60     292.58    1100.00     3.57353   0.180     4.83256     8.77099     1.94347
  9.70     295.48    1100.00     3.57589   0.180     4.83511     8.77853     1.94277
  9.80     298.39    1100.00     3.57824   0.180     4.83765     8.78605     1.94207
  9.90     301.29    1100.00     3.58060   0.180     4.84019     8.79356     1.94138
 10.00     304.19    1100.00     3.58295   0.180     4.84272     8.80105     1.94069
 10.10     307.10    1100.00     3.58530   0.180     4.84524     8.80853     1.93999
 10.20     310.00    1100.00     3.58765   0.180     4.84775     8.81600     1.93931
 10.30     312.81    1100.00     3.59378   0.180     4.85925     8.83723     1.93716
 10.40     315.62    1100.00     3.60175   0.180     4.87520     8.86532     1.93436
 10.50     318.44    1100.00     3.60990   0.180     4.89165     8.89420     1.93154
 10.60     321.25    1100.00     3.61828   0.180     4.90874     8.92411     1.92871
 10.70     324.06    1100.00     3.62695   0.180     4.92667     8.95533     1.92583
 10.80     326.88    1100.00     3.63600   0.180     4.94566     8.98820     1.92289
 10.90     329.69    1100.00     3.64552   0.180     4.96599     9.02312     1.91986
 11.00     332.50    1100.00     3.65564   0.180     4.98798     9.06061     1.91670
 11.10     335.31    1100.00     3.66650   0.180     5.01207     9.10133     1.91338
 11.20     338.13    1100.00     3.67829   0.180     5.03883     9.14612     1.90984
 11.30     340.94    1100.00     3.69128   0.180     5.06900     9.19611     1.90603
 11.40     343.75    1100.00     3.70580   0.180     5.10361     9.25287     1.90185
 11.50     346.56    1100.00     3.72234   0.180     5.14410     9.31859     1.89720
 11.60     349.38    1100.00     3.74108   0.180     5.19123     9.39438     1.89203
 11.70     352.19    1100.00     3.74321   0.180     5.19342     9.40124     1.89138
 11.80     355.00    1100.00     3.74534   0.180     5.19561     9.40810     1.89073
 11.90     357.81    1100.00     3.74747   0.180     5.19779     9.41494     1.89009
 12.00     360.62    1100.00     3.74960   0.180     5.19997     9.42178     1.88944
 12.10     363.44    1100.00     3.75174   0.180     5.20214     9.42861     1.88880
 12.20     366.25    1100.00     3.75387   0.180     5.20431     9.43543     1.88817
 12.30     369.06    1100.00     3.75601   0.180     5.20647     9.44225     1.88753
 12.40     371.88    1100.00     3.75815   0.180     5.20862     9.44906     1.88690
 12.50     374.69    1100.00     3.76030   0.180     5.21078     9.45586     1.88626
 12.60     377.50    1100.00     3.76245   0.180     5.21292     9.46266     1.88563
 12.70     380.31    1100.00     3.76460   0.180     5.21507     9.46946     1.88501
 12.80     383.12    1100.00     3.76676   0.180     5.21721     9.47625     1.88438
 12.90     385.94    1100.00     3.76892   0.180     5.21934     9.48304     1.88376
 13.00     388.75    1100.00     3.77109   0.180     5.22147     9.48982     1.88314
 13.10     391.56    1100.00     3.77326   0.180     5.22359     9.49660     1.88252
 13.20     394.38    1100.00     3.77544   0.180     5.22571     9.50338     1.88190
 13.30     397.19    1100.00     3.77762   0.180     5.22782     9.51016     1.88129
 13.40     400.00    1100.00     3.77982   0.180     5.22993     9.51693     1.88067
 13.50     402.78    1100.00     3.78202   0.180     5.23204     9.52371     1.88006
 13.60     405.56    1100.00     3.78422   0.180     5.23414     9.53048     1.87945
 13.70     408.33    1100.00     3.78644   0.180     5.23624     9.53726     1.87885
 13.80     411.11    1100.00     3.78867   0.180     5.23833     9.54404     1.87824
 13.90     413.89    1100.00     3.79091   0.180     5.24042     9.55082     1.87764
 14.00     416.67    1100.00     3.79316   0.180     5.24250     9.55761     1.87704
 14.10     419.44    1100.00     3.79542   0.180     5.24458     9.56440     1.87644
 14.20     422.22    1100.00     3.82539   0.180     5.30549     9.66208     1.86797
 14.30     425.00    1100.00     3.82813   0.180     5.31138     9.67261     1.86699
 14.40     427.78    1100.00     3.83092   0.180     5.31746     9.68337     1.86599
 14.50     430.56    1100.00     3.83375   0.180     5.32377     9.69437     1.86497
 14.60     433.33    1100.00     3.83664   0.180     5.33031     9.70565     1.86394
 14.70     436.11    1100.00     3.83958   0.180     5.33712     9.71723     1.86288
 14.80     438.89    1100.00     3.84258   0.180     5.34422     9.72913     1.86180
 14.90     441.67    1100.00     3.84564   0.180     5.35162     9.74137     1.86068
 15.00     444.44    1100.00     3.84878   0.180     5.35934     9.75398     1.85955
 15.10     447.22    1100.00     3.85199   0.180     5.36739     9.76696     1.85838
 15.20     450.00    1100.00     3.85526   0.180     5.37577     9.78031     1.85718
 15.30     452.63    1100.00     3.85860   0.180     5.38445     9.79399     1.85596
 15.40     455.26    1100.00     3.86199   0.180     5.39340     9.80797     1.85471
 15.50     457.89    1100.00     3.86543   0.180     5.40255     9.82216     1.85345
 15.60     460.53    1100.00     3.86888   0.180     5.41181     9.83644     1.85218
 15.70     463.16    1100.00     3.87233   0.180     5.42106     9.85068     1.85091
 15.80     465.79    1100.00     3.87574   0.180     5.43016     9.86471     1.84966
 15.90     468.42    1100.00     3.87908   0.180     5.43899     9.87839     1.84844
 16.00     471.05    1100.00     3.88233   0.180     5.44742     9.89156     1.84726
 16.10     473.68    1100.00     3.88548   0.180     5.45537     9.90413     1.84613
 16.20     476.32    1100.00     3.88849   0.180     5.46277     9.91603     1.84505
 16.30     478.95    1100.00     3.89138   0.180     5.46960     9.92723     1.84403
 16.40     481.58    1100.00     3.89414   0.180     5.47585     9.93773     1.84306
 16.50     484.21    1100.00     3.89677   0.180     5.48153     9.94754     1.84215
 16.60     486.84    1100.00     3.89928   0.180     5.48667     9.95670     1.84129
 16.70     489.47    1100.00     3.90168   0.180     5.49132     9.96526     1.84048
 16.80     492.11    1100.00     3.90398   0.180     5.49552     9.97329     1.83971
 16.90     494.74    1100.00     3.96388   0.180     5.65527    10.20839     1.82498
 17.00     497.37    1100.00     3.96615   0.180     5.65930    10.21613     1.82426
 17.10     500.00    1100.00     3.96833   0.180     5.66299    10.22345     1.82358
 17.20     502.50    1100.00     3.97046   0.180     5.66641    10.23046     1.82292
 17.30     505.00    1100.00     3.97254   0.180     5.66963    10.23722     1.82228
 17.40     507.50    1100.00     3.97459   0.180     5.67270    10.24380     1.82166
 17.50     510.00    1100.00     3.97661   0.180     5.67565    10.25023     1.82105
 17.60     512.50    1100.00     3.97861   0.180     5.67850    10.25654     1.82045
 17.70     515.00    1100.00     3.98060   0.180     5.68127    10.26274     1.81986
 17.80     517.50    1100.00     3.98257   0.180     5.68397    10.26886     1.81928
 17.90     520.00    1100.00     3.98453   0.180     5.68662    10.27490     1.81871
 18.00     522.50    1100.00     3.98648   0.180     5.68921    10.28086     1.81815
 18.10     525.00    1100.00     3.98842   0.180     5.69175    10.28677     1.81759
 18.20     527.50    1100.00     3.99035   0.180     5.69426    10.29263     1.81703
 18.30     530.00    1100.00     3.99228   0.180     5.69673    10.29843     1.81648
 18.40     532.50    1100.00     3.99420   0.180     5.69917    10.30418     1.81594
 18.50     535.00    1100.00     3.99683   0.180     5.70164    10.31024     1.81566
 18.60     537.50    1100.00     3.99993   0.180     5.70398    10.31639     1.81559
 18.70     540.00    1100.00     4.00293   0.180     5.70626    10.32243     1.81549
 18.80     542.50    1100.00     4.00583   0.180     5.70848    10.32836     1.81537
 18.90     545.00    1100.00     4.00864   0.180     5.71064    10.33421     1.81522
 19.00     547.50    1100.00     4.01136   0.180     5.71276    10.33997     1.81506
 19.10     550.00    1100.00     4.01400   0.180     5.71484    10.34565     1.81487
 19.20     552.63    1100.00     4.01657   0.180     5.71688    10.35126     1.81466
 19.30     555.26    1100.00     4.01907   0.180     5.71888    10.35680     1.81444
 19.40     557.90    1100.00     4.02150   0.180     5.72085    10.36228     1.81419
 19.50     560.53    1100.00     4.02388   0.180     5.72279    10.36771     1.81394
 19.60     563.16    1100.00     4.02620   0.180     5.72470    10.37308     1.81367
 19.70     565.79    1100.00     4.02848   0.180     5.72658    10.37840     1.81339
 19.80     568.42    1100.00     4.03071   0.180     5.72844    10.38368     1.81309
 19.90     571.05    1100.00     4.03291   0.180     5.73028    10.38891     1.81279
 20.00     573.68    1100.00     4.03506   0.180     5.73210    10.39410     1.81248
 20.10     576.32    1100.00     4.03718   0.180     5.73389    10.39926     1.81216
 20.20     578.95    1100.00     4.03927   0.180     5.73567    10.40438     1.81183
 20.30     581.58    1100.00     4.04133   0.180     5.73743    10.40947     1.81150
 20.40     584.21    1100.00     4.04336   0.180     5.73917    10.41452     1.81116
 20.50     586.84    1100.00     4.04537   0.180     5.74090    10.41955     1.81081
 20.60     589.47    1100.00     4.04735   0.180     5.74261    10.42454     1.81046
 20.70     592.11    1100.00     4.04931   0.180     5.74430    10.42951     1.81011
 20.80     594.74    1100.00     4.05125   0.180     5.74598    10.43446     1.80975
 20.90     597.37    1100.00     4.05476   0.180     5.74522    10.44145     1.80911
 21.00     600.00    1100.00     4.06883   0.180     5.72956    10.46324     1.80647
 21.10     602.50    1100.00     4.07086   0.180     5.73203    10.46934     1.80596
 21.20     605.00    1100.00     4.07289   0.180     5.73451    10.47545     1.80544
 21.30     607.50    1100.00     4.07492   0.180     5.73701    10.48159     1.80492
 21.40     610.00    1100.00     4.07694   0.180     5.73952    10.48776     1.80439
 21.50     612.50    1100.00     4.07897   0.180     5.74206    10.49396     1.80386
 21.60     615.00    1100.00     4.08099   0.180     5.74463    10.50020     1.80331
 21.70     617.50    1100.00     4.08302   0.180     5.74723    10.50649     1.80276
 21.80     620.00    1100.00     4.08505   0.180     5.74986    10.51283     1.80220
 21.90     622.50    1100.00     4.08709   0.180     5.75254    10.51923     1.80163
 22.00     625.00    1100.00     4.08914   0.180     5.75526    10.52569     1.80105
 22.10     627.50    1100.00     4.09120   0.180     5.75803    10.53224     1.80046
 22.20     630.00    1100.00     4.09327   0.180     5.76087    10.53887     1.79986
 22.30     632.50    1100.00     4.09535   0.180     5.76377    10.54560     1.79924
 22.40     635.00    1100.00     4.09745   0.180     5.76675    10.55245     1.79861
 22.50     637.50    1100.00     4.09958   0.180     5.76982    10.55942     1.79796
 22.60     640.00    1100.00     4.10172   0.180     5.77298    10.56653     1.79730
 22.70     642.50    1100.00     4.10390   0.180     5.77625    10.57380     1.79661
 22.80     645.00    1100.00     4.10611   0.180     5.77965    10.58126     1.79591
 22.90     647.50    1100.00     4.10947   0.180     5.78512    10.59165     1.79482
 23.00     650.00    1100.00     4.11301   0.180     5.79115    10.60286     1.79363
 23.10     652.50    1100.00     4.11665   0.180     5.79761    10.61470     1.79239
 23.20     655.00    1100.00     4.12040   0.180     5.80459    10.62732     1.79106
 23.30     657.50    1100.00     4.12433   0.180     5.81224    10.64092     1.78962
 23.40     660.00    1100.00     4.12849   0.180     5.82074    10.65577     1.78806
 23.50     662.50    1100.00     4.20031   0.180     5.89711    10.79941     1.77516
 23.60     665.00    1100.00     4.22142   0.180     5.90364    10.82207     1.77439
 23.70     667.50    1100.00     4.24711   0.180     5.91361    10.85109     1.77360
 23.80     670.00    1100.00     4.26486   0.180     5.92227    10.87366     1.77294
 23.90     672.22    1100.00     4.26633   0.180     5.92444    10.87920     1.77247
 24.00     674.43    1100.00     4.26779   0.180     5.92662    10.88474     1.77200
 24.10     676.65    1100.00     4.26925   0.180     5.92879    10.89027     1.77153
 24.20     678.87    1100.00     4.27071   0.180     5.93096    10.89579     1.77107
 24.30     681.09    1100.00     4.27217   0.180     5.93313    10.90130     1.77060
 24.40     683.30    1100.00     4.27362   0.180     5.93529    10.90681     1.77014
 24.50     685.52    1100.00     4.27508   0.180     5.93746    10.91232     1.76967
 24.60     687.74    1100.00     4.27653   0.180     5.93962    10.91781     1.76921
 24.70     689.96    1100.00     4.27798   0.180     5.94178    10.92330     1.76874
 24.80     692.17    1100.00     4.27943   0.180     5.94394    10.92878     1.76828
 24.90     694.39    1100.00     4.28088   0.180     5.94610    10.93426     1.76782
 25.00     696.61    1100.00     4.28232   0.180     5.94826    10.93972     1.76736
 25.10     698.83    1100.00     4.28377   0.180     5.95041    10.94519     1.76690
 25.20     701.04    1100.00     4.31102   0.180     5.99706    10.97456     1.77003
 25.30     703.26    1100.00     4.34249   0.180     6.04976    11.00715     1.77383
 25.40     705.48    1100.00     4.36831   0.180     6.09188    11.03388     1.77690
 25.50     707.70    1100.00     4.38970   0.180     6.12595    11.05607     1.77938
 25.60     709.91    1100.00     4.40762   0.180     6.15384    11.07472     1.78139
 25.70     712.13    1100.00     4.42278   0.180     6.17694    11.09058     1.78301
 25.80     714.35    1100.00     4.43575   0.180     6.19626    11.10422     1.78432
 25.90     716.57    1100.00     4.44695   0.180     6.21260    11.11609     1.78537
 26.00     718.78    1100.00     4.45671   0.180     6.22654    11.12653     1.78621
 26.10     721.00    1100.00     4.46531   0.180     6.23854    11.13579     1.78687
 26.20     723.27    1100.00     4.47296   0.180     6.24898    11.14412     1.78738
 26.30     725.54    1100.00     4.47997   0.180     6.25837    11.15182     1.78779
 26.40     727.82    1100.00     4.49222   0.180     6.27907    11.16779     1.78885
 26.50     730.09    1100.00     4.49373   0.180     6.28075    11.17180     1.78838
 26.60     732.36    1100.00     4.49523   0.180     6.28241    11.17581     1.78792
 26.70     734.64    1100.00     4.49674   0.180     6.28407    11.17980     1.78745
 26.80     736.91    1100.00     4.49824   0.180     6.28572    11.18379     1.78698
 26.90     739.18    1100.00     4.49973   0.180     6.28736    11.18776     1.78651
 27.00     741.46    1100.00     4.50123   0.180     6.28900    11.19173     1.78605
 27.10     743.73    1100.00     4.50272   0.180     6.29063    11.19569     1.78558
 27.20     746.00    1100.00     4.50422   0.180     6.29225    11.19963     1.78512
 27.30     748.27    1100.00     4.50571   0.180     6.29387    11.20357     1.78465
 27.40     750.55    1100.00     4.50720   0.180     6.29548    11.20749     1.78419
 27.50     752.82    1100.00     4.50869   0.180     6.29708    11.21141     1.78373
 27.60     755.09    1100.00     4.51017   0.180     6.29868    11.21531     1.78327
 27.70     757.36    1100.00     4.51166   0.180     6.30026    11.21921     1.78281
 27.80     759.64    1100.00     4.51315   0.180     6.30185    11.22309     1.78235
 27.90     761.91    1100.00     4.51463   0.180     6.30342    11.22696     1.78189
 28.00     764.18    1100.00     4.51612   0.180     6.30499    11.23082     1.78144
 28.10     766.46    1100.00     4.51760   0.180     6.30656    11.23467     1.78098
 28.20     768.73    1100.00     4.51909   0.180     6.30811    11.23851     1.78053
 28.30     771.00    1100.00     4.52057   0.180     6.30966    11.24234     1.78007
 28.40     773.22    1100.00     4.52206   0.180     6.31120    11.24616     1.77962
 28.50     775.44    1100.00     4.52354   0.180     6.31274    11.24996     1.77917
 28.60     777.67    1100.00     4.52503   0.180     6.31427    11.25375     1.77872
 28.70     779.89    1100.00     4.52651   0.180     6.31579    11.25753     1.77827
 28.80     782.11    1100.00     4.52800   0.180     6.31730    11.26129     1.77782
 28.90     784.33    1100.00     4.52948   0.180     6.31881    11.26504     1.77738
 29.00     786.56    1100.00     4.53097   0.180     6.32030    11.26878     1.77693
 29.10     788.78    1100.00     4.53246   0.180     6.32179    11.27250     1.77649
 29.20     791.00    1100.00     4.53395   0.180     6.32327    11.27620     1.77605
 29.30     793.22    1100.00     4.53544   0.180     6.32474    11.27989     1.77560
 29.40     795.44    1100.00     4.53694   0.180     6.32620    11.28356     1.77517
 29.50     797.67    1100.00     4.53843   0.180     6.32766    11.28722     1.77473
 29.60     799.89    1100.00     4.53993   0.180     6.32910    11.29085     1.77429
 29.70     802.11    1100.00     4.54143   0.180     6.33053    11.29447     1.77386
 29.80     804.33    1100.00     4.54293   0.180     6.33195    11.29807     1.77342
 29.90     806.56    1100.00     4.54444   0.180     6.33336    11.30164     1.77299
 30.00     808.78    1100.00     4.54595   0.180     6.33475    11.30519     1.77256
 30.10     811.00    1100.00     4.54747   0.180     6.33613    11.30872     1.77214
 30.20     813.22    1100.00     4.54898   0.180     6.33750    11.31222     1.77171
 30.30     815.44    1100.00     4.55051   0.180     6.33886    11.31570     1.77129
 30.40     817.67    1100.00     4.55195   0.180     6.34035    11.31945     1.77085
 30.50     819.89    1100.00     4.55334   0.180     6.34193    11.32335     1.77039
 30.60     822.11    1100.00     4.55473   0.180     6.34350    11.32725     1.76994
 30.70     824.33    1100.00     4.55612   0.180     6.34508    11.33115     1.76949
 30.80     826.56    1100.00     4.55751   0.180     6.34665    11.33504     1.76903
 30.90     828.78    1100.00     4.55890   0.180     6.34822    11.33892     1.76858
 31.00     831.00    1100.00     4.56029   0.180     6.34978    11.34281     1.76813
 31.10     833.22    1100.00     4.56167   0.180     6.35135    11.34668     1.76768
 31.20     835.44    1100.00     4.56305   0.180     6.35291    11.35056     1.76723
 31.30     837.67    1100.00     4.56444   0.180     6.35447    11.35443     1.76678
 31.40     839.89    1100.00     4.56582   0.180     6.35603    11.35829     1.76634
 31.50     842.11    1100.00     4.56720   0.180     6.35759    11.36215     1.76589
 31.60     844.33    1100.00     4.56858   0.180     6.35914    11.36601     1.76544
 31.70     846.56    1100.00     4.56996   0.180     6.36070    11.36986     1.76500
 31.80     848.78    1100.00     4.57133   0.180     6.36225    11.37371     1.76455
 31.90     851.00    1100.00     4.57271   0.180     6.36380    11.37755     1.76411
 32.00     853.22    1100.00     4.57408   0.180     6.36535    11.38139     1.76366
 32.10     855.44    1100.00     4.57546   0.180     6.36689    11.38523     1.76322
 32.20     857.67    1100.00     4.57683   0.180     6.36843    11.38906     1.76278
 32.30     859.89    1100.00     4.57820   0.180     6.36998    11.39288     1.76234
 32.40     862.11    1100.00     4.57957   0.180     6.37152    11.39671     1.76189
 32.50     864.33    1100.00     4.58094   0.180     6.37305    11.40052     1.76145
 32.60     866.56    1100.00     4.58230   0.180     6.37459    11.40434     1.76101
 32.70     868.78    1100.00     4.58367   0.180     6.37612    11.40815     1.76057
 32.80     871.00    1100.00     4.58503   0.180     6.37765    11.41196     1.76014
 32.90     873.22    1100.00     4.58640   0.180     6.37918    11.41576     1.75970
 33.00     875.44    1100.00     4.58776   0.180     6.38071    11.41956     1.75926
 33.10     877.67    1100.00     4.58912   0.180     6.38224    11.42335     1.75882
 33.20     879.89    1100.00     4.59048   0.180     6.38376    11.42714     1.75839
 33.30     882.11    1100.00     4.59184   0.180     6.38529    11.43092     1.75795
 33.40     884.33    1100.00     4.59320   0.180     6.38681    11.43471     1.75752
 33.50     886.56    1100.00     4.59456   0.180     6.38833    11.43848     1.75708
 33.60     888.78    1100.00     4.59591   0.180     6.38984    11.44226     1.75665
 33.70     891.00    1100.00     4.59727   0.180     6.39136    11.44603     1.75622
 33.80     893.22    1100.00     4.59862   0.180     6.39287    11.44979     1.75579
 33.90     895.45    1100.00     4.59997   0.180     6.39438    11.45355     1.75535
 34.00     897.67    1100.00     4.60132   0.180     6.39589    11.45731     1.75492
 34.10     899.89    1100.00     4.60267   0.180     6.39740    11.46107     1.75449
 34.20     902.11    1100.00     4.60402   0.180     6.39891    11.46482     1.75406
 34.30     904.33    1100.00     4.60537   0.180     6.40041    11.46856     1.75363
 34.40     906.56    1100.00     4.60671   0.180     6.40191    11.47230     1.75321
 34.50     908.78    1100.00     4.60806   0.180     6.40341    11.47604     1.75278
 34.60     911.00    1100.00     4.60940   0.180     6.40491    11.47978     1.75235
 34.70     913.22    1100.00     4.61075   0.180     6.40641    11.48351     1.75192
 34.80     915.44    1100.00     4.61209   0.180     6.40790    11.48723     1.75150
 34.90     917.67    1100.00     4.61343   0.180     6.40940    11.49095     1.75107
 35.00     919.89    1100.00     4.61477   0.180     6.41089    11.49467     1.75065
 35.10     922.11    1100.00     4.61611   0.180     6.41238    11.49839     1.75022
 35.20     924.33    1100.00     4.61745   0.180     6.41387    11.50210     1.74980
 35.30     926.56    1100.00     4.61878   0.180     6.41535    11.50581     1.74938
 35.40     928.78    1100.00     4.62012   0.180     6.41684    11.50951     1.74896
 35.50     931.00    1100.00     4.62145   0.180     6.41832    11.51321     1.74853
 35.60     933.22    1100.00     4.62279   0.180     6.41980    11.51690     1.74811
 35.70     935.44    1100.00     4.62412   0.180     6.42128    11.52060     1.74769
 35.80     937.67    1100.00     4.62545   0.180     6.42276    11.52428     1.74727
 35.90     939.89    1100.00     4.62678   0.180     6.42424    11.52797     1.74685
 36.00     942.11    1100.00     4.62811   0.180     6.42571    11.53165     1.74644
 36.10     944.33    1100.00     4.62943   0.180     6.42718    11.53532     1.74602
 36.20     946.56    1100.00     4.63076   0.180     6.42865    11.53900     1.74560
 36.30     948.78    1100.00     4.63209   0.180     6.43012    11.54267     1.74518
 36.40     951.00    1100.00     4.63341   0.180     6.43159    11.54633     1.74477
 36.50     953.22    1100.00     4.63473   0.180     6.43306    11.54999     1.74435
 36.60     955.44    1100.00     4.63606   0.180     6.43452    11.55365     1.74394
 36.70     957.67    1100.00     4.63738   0.180     6.43598    11.55731     1.74352
 36.80     959.89    1100.00     4.63870   0.180     6.43744    11.56096     1.74311
 36.90     962.11    1100.00     4.64002   0.180     6.43890    11.56460     1.74269
 37.00     964.33    1100.00     4.64134   0.180     6.44036    11.56825     1.74228
 37.10     966.56    1100.00     4.64265   0.180     6.44182    11.57189     1.74187
 37.20     968.78    1100.00     4.64397   0.180     6.44327    11.57552     1.74146
 37.30     971.00    1100.00     4.64528   0.180     6.44472    11.57916     1.74105
 37.40     973.17    1100.00     4.64660   0.180     6.44617    11.58278     1.74064
 37.50     975.35    1100.00     4.64791   0.180     6.44762    11.58641     1.74023
 37.60     977.52    1100.00     4.64922   0.180     6.44907    11.59003     1.73982
 37.70     979.70    1100.00     4.65053   0.180     6.45052    11.59365     1.73941
 37.80     981.87    1100.00     4.65184   0.180     6.45196    11.59726     1.73900
 37.90     984.04    1100.00     4.65315   0.180     6.45340    11.60087     1.73859
 38.00     986.22    1100.00     4.65446   0.180     6.45484    11.60448     1.73819
 38.10     988.39    1100.00     4.65576   0.180     6.45628    11.60808     1.73778
 38.20     990.57    1100.00     4.65707   0.180     6.45772    11.61168     1.73737
 38.30     992.74    1100.00     4.65837   0.180     6.45916    11.61528     1.73697
 38.40     994.91    1100.00     4.65968   0.180     6.46059    11.61887     1.73656
 38.50     997.09    1100.00     4.66098   0.180     6.46203    11.62246     1.73616
 38.60     999.26    1100.00     4.66228   0.180     6.46346    11.62605     1.73575
 38.70    1001.43    1100.00     4.66358   0.180     6.46489    11.62963     1.73535
 38.80    1003.61    1100.00     4.66488   0.180     6.46632    11.63321     1.73495
 38.90    1005.78    1100.00     4.66618   0.180     6.46774    11.63679     1.73455
 39.00    1007.96    1100.00     4.66748   0.180     6.46917    11.64036     1.73415
